#Be Density=1.848 Thickness=25.4 microns
#Photon Energy (eV), Transmission
10.000, 0.00000
49.980, 0.39971E-29
89.960, 0.72243E-16
129.94, 0.00000
169.92, 0.00000
209.90, 0.00000
249.88, 0.00000
289.86, 0.99750E-40
329.84, 0.36222E-28
369.82, 0.78921E-21
409.80, 0.96760E-16
449.78, 0.46515E-12
489.76, 0.19462E-09
529.74, 0.16168E-07
569.72, 0.45127E-06
609.70, 0.60102E-05
649.68, 0.46132E-04
689.66, 0.22863E-03
729.64, 0.79230E-03
769.62, 0.22439E-02
809.60, 0.52368E-02
849.58, 0.10514E-01
889.56, 0.18737E-01
929.54, 0.30333E-01
969.52, 0.45755E-01
1009.5, 0.64921E-01
1049.5, 0.87530E-01
1089.5, 0.11316
1129.4, 0.14126
1169.4, 0.17128
1209.4, 0.20264
1249.4, 0.23483
1289.4, 0.26737
1329.3, 0.29987
1369.3, 0.33200
1409.3, 0.36351
1449.3, 0.39417
1489.3, 0.42383
1529.2, 0.45257
1569.2, 0.48051
1609.2, 0.50720
1649.2, 0.53260
1689.2, 0.55673
1729.1, 0.57960
1769.1, 0.60125
1809.1, 0.62170
1849.1, 0.64102
1889.1, 0.65924
1929.0, 0.67642
1969.0, 0.69262
2009.0, 0.70788
2049.0, 0.72243
2089.0, 0.73624
2128.9, 0.74924
2168.9, 0.76147
2208.9, 0.77300
2248.9, 0.78385
2288.9, 0.79408
2328.8, 0.80372
2368.8, 0.81280
2408.8, 0.82137
2448.8, 0.82946
2488.8, 0.83709
2528.7, 0.84430
2568.7, 0.85111
2608.7, 0.85755
2648.7, 0.86365
2688.7, 0.86941
2728.6, 0.87487
2768.6, 0.88004
2808.6, 0.88494
2848.6, 0.88958
2888.6, 0.89399
2928.5, 0.89817
2968.5, 0.90215
3008.5, 0.90592
3048.5, 0.90955
3088.5, 0.91303
3128.4, 0.91634
3168.4, 0.91948
3208.4, 0.92248
3248.4, 0.92533
3288.4, 0.92805
3328.3, 0.93064
3368.3, 0.93311
3408.3, 0.93546
3448.3, 0.93771
3488.3, 0.93986
3528.2, 0.94192
3568.2, 0.94388
3608.2, 0.94576
3648.2, 0.94755
3688.2, 0.94927
3728.1, 0.95092
3768.1, 0.95249
3808.1, 0.95400
3848.1, 0.95545
3888.1, 0.95684
3928.0, 0.95817
3968.0, 0.95945
4008.0, 0.96068
4048.0, 0.96186
4088.0, 0.96299
4127.9, 0.96409
4167.9, 0.96515
4207.9, 0.96617
4247.9, 0.96714
4287.9, 0.96809
4327.8, 0.96899
4367.8, 0.96987
4407.8, 0.97071
4447.8, 0.97152
4487.8, 0.97230
4527.7, 0.97305
4567.7, 0.97377
4607.7, 0.97447
4647.7, 0.97515
4687.7, 0.97580
4727.6, 0.97643
4767.6, 0.97703
4807.6, 0.97762
4847.6, 0.97819
4887.6, 0.97873
4927.5, 0.97926
4967.5, 0.97978
5007.5, 0.98027
5047.5, 0.98075
5087.5, 0.98121
5127.4, 0.98166
5167.4, 0.98210
5207.4, 0.98252
5247.4, 0.98292
5287.4, 0.98332
5327.3, 0.98371
5367.3, 0.98408
5407.3, 0.98444
5447.3, 0.98479
5487.3, 0.98514
5527.2, 0.98547
5567.2, 0.98579
5607.2, 0.98610
5647.2, 0.98640
5687.2, 0.98669
5727.1, 0.98697
5767.1, 0.98725
5807.1, 0.98752
5847.1, 0.98778
5887.1, 0.98803
5927.0, 0.98828
5967.0, 0.98852
6007.0, 0.98875
6047.0, 0.98897
6087.0, 0.98919
6126.9, 0.98941
6166.9, 0.98961
6206.9, 0.98982
6246.9, 0.99001
6286.9, 0.99021
6326.8, 0.99039
6366.8, 0.99057
6406.8, 0.99075
6446.8, 0.99093
6486.8, 0.99109
6526.7, 0.99126
6566.7, 0.99142
6606.7, 0.99158
6646.7, 0.99173
6686.7, 0.99188
6726.6, 0.99202
6766.6, 0.99216
6806.6, 0.99230
6846.6, 0.99243
6886.6, 0.99256
6926.5, 0.99269
6966.5, 0.99282
7006.5, 0.99294
7046.5, 0.99306
7086.5, 0.99317
7126.4, 0.99328
7166.4, 0.99339
7206.4, 0.99350
7246.4, 0.99361
7286.4, 0.99371
7326.3, 0.99381
7366.3, 0.99391
7406.3, 0.99400
7446.3, 0.99410
7486.3, 0.99419
7526.2, 0.99428
7566.2, 0.99437
7606.2, 0.99445
7646.2, 0.99453
7686.2, 0.99462
7726.1, 0.99470
7766.1, 0.99477
7806.1, 0.99485
7846.1, 0.99492
7886.1, 0.99500
7926.0, 0.99507
7966.0, 0.99514
8006.0, 0.99521
8046.0, 0.99528
8086.0, 0.99534
8125.9, 0.99541
8165.9, 0.99547
8205.9, 0.99553
8245.9, 0.99559
8285.9, 0.99565
8325.8, 0.99571
8365.8, 0.99576
8405.8, 0.99582
8445.8, 0.99588
8485.8, 0.99593
8525.7, 0.99598
8565.7, 0.99603
8605.7, 0.99608
8645.7, 0.99613
8685.7, 0.99618
8725.6, 0.99623
8765.6, 0.99628
8805.6, 0.99632
8845.6, 0.99637
8885.6, 0.99641
8925.5, 0.99645
8965.5, 0.99650
9005.5, 0.99654
9045.5, 0.99658
9085.5, 0.99662
9125.4, 0.99666
9165.4, 0.99670
9205.4, 0.99673
9245.4, 0.99677
9285.4, 0.99681
9325.3, 0.99684
9365.3, 0.99688
9405.3, 0.99691
9445.3, 0.99695
9485.3, 0.99698
9525.2, 0.99701
9565.2, 0.99704
9605.2, 0.99708
9645.2, 0.99711
9685.2, 0.99714
9725.1, 0.99717
9765.1, 0.99720
9805.1, 0.99722
9845.1, 0.99725
9885.1, 0.99728
9925.0, 0.99731
9965.0, 0.99733
10005.0, 0.99736
10045.0, 0.99739
10085.0, 0.99741
10125.0, 0.99744
10165.0, 0.99746
10205.0, 0.99748
10245.0, 0.99751
10285.0, 0.99753
10325.0, 0.99755
10365.0, 0.99758
10405.0, 0.99760
10445.0, 0.99762
10485.0, 0.99764
10525.0, 0.99766
10565.0, 0.99769
10605.0, 0.99771
10645.0, 0.99773
10685.0, 0.99775
10725.0, 0.99776
10765.0, 0.99778
10805.0, 0.99780
10845.0, 0.99782
10885.0, 0.99784
10925.0, 0.99786
10965.0, 0.99788
11004.0, 0.99789
11044.0, 0.99791
11084.0, 0.99793
11124.0, 0.99794
11164.0, 0.99796
11204.0, 0.99798
11244.0, 0.99799
11284.0, 0.99801
11324.0, 0.99802
11364.0, 0.99804
11404.0, 0.99805
11444.0, 0.99807
11484.0, 0.99808
11524.0, 0.99810
11564.0, 0.99811
11604.0, 0.99812
11644.0, 0.99814
11684.0, 0.99815
11724.0, 0.99816
11764.0, 0.99818
11804.0, 0.99819
11844.0, 0.99820
11884.0, 0.99821
11924.0, 0.99823
11964.0, 0.99824
12004.0, 0.99825
12044.0, 0.99826
12084.0, 0.99827
12124.0, 0.99828
12164.0, 0.99830
12204.0, 0.99831
12244.0, 0.99832
12284.0, 0.99833
12324.0, 0.99834
12364.0, 0.99835
12404.0, 0.99836
12444.0, 0.99837
12484.0, 0.99838
12524.0, 0.99839
12564.0, 0.99840
12604.0, 0.99841
12644.0, 0.99842
12684.0, 0.99843
12724.0, 0.99844
12764.0, 0.99845
12804.0, 0.99845
12844.0, 0.99846
12884.0, 0.99847
12924.0, 0.99848
12964.0, 0.99849
13004.0, 0.99850
13043.0, 0.99851
13083.0, 0.99851
13123.0, 0.99852
13163.0, 0.99853
13203.0, 0.99854
13243.0, 0.99854
13283.0, 0.99855
13323.0, 0.99856
13363.0, 0.99857
13403.0, 0.99857
13443.0, 0.99858
13483.0, 0.99859
13523.0, 0.99860
13563.0, 0.99860
13603.0, 0.99861
13643.0, 0.99862
13683.0, 0.99862
13723.0, 0.99863
13763.0, 0.99864
13803.0, 0.99864
13843.0, 0.99865
13883.0, 0.99865
13923.0, 0.99866
13963.0, 0.99867
14003.0, 0.99867
14043.0, 0.99868
14083.0, 0.99868
14123.0, 0.99869
14163.0, 0.99869
14203.0, 0.99870
14243.0, 0.99871
14283.0, 0.99871
14323.0, 0.99872
14363.0, 0.99872
14403.0, 0.99873
14443.0, 0.99873
14483.0, 0.99874
14523.0, 0.99874
14563.0, 0.99875
14603.0, 0.99875
14643.0, 0.99876
14683.0, 0.99876
14723.0, 0.99877
14763.0, 0.99877
14803.0, 0.99878
14843.0, 0.99878
14883.0, 0.99878
14923.0, 0.99879
14963.0, 0.99879
15002.0, 0.99880
15042.0, 0.99880
15082.0, 0.99881
15122.0, 0.99881
15162.0, 0.99882
15202.0, 0.99882
15242.0, 0.99882
15282.0, 0.99883
15322.0, 0.99883
15362.0, 0.99884
15402.0, 0.99884
15442.0, 0.99884
15482.0, 0.99885
15522.0, 0.99885
15562.0, 0.99886
15602.0, 0.99886
15642.0, 0.99886
15682.0, 0.99887
15722.0, 0.99887
15762.0, 0.99887
15802.0, 0.99888
15842.0, 0.99888
15882.0, 0.99888
15922.0, 0.99889
15962.0, 0.99889
16002.0, 0.99889
16042.0, 0.99890
16082.0, 0.99890
16122.0, 0.99890
16162.0, 0.99891
16202.0, 0.99891
16242.0, 0.99891
16282.0, 0.99892
16322.0, 0.99892
16362.0, 0.99892
16402.0, 0.99893
16442.0, 0.99893
16482.0, 0.99893
16522.0, 0.99894
16562.0, 0.99894
16602.0, 0.99894
16642.0, 0.99894
16682.0, 0.99895
16722.0, 0.99895
16762.0, 0.99895
16802.0, 0.99895
16842.0, 0.99896
16882.0, 0.99896
16922.0, 0.99896
16962.0, 0.99897
17002.0, 0.99897
17041.0, 0.99897
17081.0, 0.99897
17121.0, 0.99898
17161.0, 0.99898
17201.0, 0.99898
17241.0, 0.99898
17281.0, 0.99898
17321.0, 0.99899
17361.0, 0.99899
17401.0, 0.99899
17441.0, 0.99899
17481.0, 0.99900
17521.0, 0.99900
17561.0, 0.99900
17601.0, 0.99900
17641.0, 0.99901
17681.0, 0.99901
17721.0, 0.99901
17761.0, 0.99901
17801.0, 0.99901
17841.0, 0.99902
17881.0, 0.99902
17921.0, 0.99902
17961.0, 0.99902
18001.0, 0.99902
18041.0, 0.99903
18081.0, 0.99903
18121.0, 0.99903
18161.0, 0.99903
18201.0, 0.99903
18241.0, 0.99903
18281.0, 0.99904
18321.0, 0.99904
18361.0, 0.99904
18401.0, 0.99904
18441.0, 0.99904
18481.0, 0.99905
18521.0, 0.99905
18561.0, 0.99905
18601.0, 0.99905
18641.0, 0.99905
18681.0, 0.99905
18721.0, 0.99906
18761.0, 0.99906
18801.0, 0.99906
18841.0, 0.99906
18881.0, 0.99906
18921.0, 0.99906
18961.0, 0.99906
19001.0, 0.99907
19040.0, 0.99907
19080.0, 0.99907
19120.0, 0.99907
19160.0, 0.99907
19200.0, 0.99907
19240.0, 0.99907
19280.0, 0.99908
19320.0, 0.99908
19360.0, 0.99908
19400.0, 0.99908
19440.0, 0.99908
19480.0, 0.99908
19520.0, 0.99908
19560.0, 0.99909
19600.0, 0.99909
19640.0, 0.99909
19680.0, 0.99909
19720.0, 0.99909
19760.0, 0.99909
19800.0, 0.99909
19840.0, 0.99909
19880.0, 0.99910
19920.0, 0.99910
19960.0, 0.99910
20000.0, 0.99910

